wavelength / nm ,EQE / %
380,15.10961452
400,25.5171507
420,33.16606284
440,36.42625489
460,39.81183895
480,46.95918308
500,63.76171137
520,76.67708759
540,80.56423966
560,86.83383977
580,86.83383977
600,85.57991975
620,85.45452775
640,83.94982372
660,82.19433569
680,80.81502367
700,79.81188765
720,77.55483161
740,73.79307154
760,70.40748749
780,64.76484739
800,55.10966322
820,41.19115098
840,33.41684684
860,18.24441458
880,10.21932644
